G:\BEAR_storage\User_Experiments\20221107_cotroneo\file(1)_Region 1__0164.txt
Ring Energy (GeV): 2
Lifetime (hours): 23.4786
Scan beginning: 11/10/2022	10:16:10 PM
Ring current (mA): 308.84
Source position: x (mm): 0.003 x' (mrad): 0.001 y (mm): -0.007 y' (mrad): -0.001
Scan end: 11/10/2022	10:18:18 PM
Ring current (mA): 308.36
Source position: x (mm): 0.002 x' (mrad): 0.002 y (mm): -0.007 y' (mrad): -0.001

SCAN TYPE: PHOTON ENERGY VS VAR_1 VS VAR_2

FILE INFO: FILE INFO:

SCAN PARAMETERS
waiting time (ms): 0
Number of scans: 1
Current scan number: 1
DARK OFF 
PREDARK OFF 

SCAN PARAMETERS
Regions configuration: 
number of regions: 5
Mirror grating scan: on
Timed acquisition: off
Region 1:
Initial energy (eV): 100.000000
Final energy (eV): 180.000000
Delta energy (eV): 20.000000
Deviation angle choice: Default High flux
Deviation angle (°): NaN
B filter
G1200 channel
range keithley B 20 nA
range keithley C 200 nA
range keithley A 20 nA
Var_1: ThetaM 0.000000
Var_2: ThetaA-59.700000
Bias CEM (V): 0.000000
Bias Keithley B (V): 0.000000
Name region: 
Region 2:
Initial energy (eV): 170.000000
Final energy (eV): 280.000000
Delta energy (eV): 20.000000
Deviation angle choice: Default High flux
Deviation angle (°): NaN
PY filter 
G1200 channel
range keithley B 20 nA
range keithley C 200 nA
range keithley A 20 nA
Var_1: ThetaM 0.000000
Var_2: ThetaA-59.700000
Bias CEM (V): 0.000000
Bias Keithley B (V): 0.000000
Name region: 
Region 3:
Initial energy (eV): 260.000000
Final energy (eV): 460.000000
Delta energy (eV): 20.000000
Deviation angle choice: Default High flux
Deviation angle (°): NaN
Ti filter
G1200 channel
range keithley B 20 nA
range keithley C 200 nA
range keithley A 20 nA
Var_1: ThetaM 0.000000
Var_2: ThetaA-59.700000
Bias CEM (V): 0.000000
Bias Keithley B (V): 0.000000
Name region: 
Region 4:
Initial energy (eV): 440.000000
Final energy (eV): 1000.000000
Delta energy (eV): 20.000000
Deviation angle choice: Default High flux
Deviation angle (°): NaN
Full Beam
G1200 channel
range keithley B 20 nA
range keithley C 200 nA
range keithley A 20 nA
Var_1: ThetaM 0.000000
Var_2: ThetaA-59.700000
Bias CEM (V): 0.000000
Bias Keithley B (V): 0.000000
Name region: 
Region 5:
Initial energy (eV): 270.000000
Final energy (eV): 330.000000
Delta energy (eV): 0.500000
Deviation angle choice: Default High flux
Deviation angle (°): NaN
Ti filter
G1200 channel
range keithley B 20 nA
range keithley C 200 nA
range keithley A 20 nA
Var_1: ThetaM 0.000000
Var_2: ThetaA-59.700000
Bias CEM (V): 0.000000
Bias Keithley B (V): 0.000000
Name region: 

BEAR MONOCHROMATOR CONFIGURATION: 
Current Grating Position:     62412.70
Current Mirror Position: 215699.4
Current Grating: G1200
P2 phiz position:  0.0000
Mono axis position: 25.0000
Current Photon Energy (eV): 329.999
Current Deviation Angle: 170.186
Vertical Exit Slits (um): 15.000
Exit slit y axis position: 1.1500
Horizontal Exit Slits (um):  890.000
Exit slit z axis position: 1.9250
Mitutoyo position (mm): 

Dose on sample (mJ/cm^2): NaN

ENERGY CALIBRATION:
offset grating G1200: yes
Delta 0 order G1200:  -1900.0
offset grating G1800: not
Delta 0 order G1800:  0.0
offset grating GNIM: not
Delta 0 order GNIM:  0.0
ZERO ORDER POSITIONS:
Grating G1200: Mirror position:  4938.0
Grating position: -105355.0
Grating G1800: 
Mirror position:  4938.0
Grating position: -106345.0
Grating GNIM: 
Mirror position:  10000.0
Grating position: 227300.0

Initial filter: Ti filter

EXPERIMENTAL CHAMBER CONFIGURATION: 
PsiC (deg):   -0.006502
Phi Analyzer (degrees): 4.250487
Theta Manipulator (degrees): 1.845970
Theta Analyzer (degrees): -61.701633
PhiM (degrees): -6.003715
XM (mm): -1.999938
YM (mm): 23.000025
ZM (mm): (Warning: for kinetic energy scans, 
this parameter is given in the scan settings) 
-16.032888
TiltM (°): -5.747775

COIL VALUES
Ix (amps):0.000
Iy (amps): 0.053
Iz (amps): 0.000

POLARIZATION SELECTOR CONFIGURATION:
Psi1 (rad): -0.001665535
Psi2 (rad): 0.001417093
Z min position (mm): 46.599650
DZ position (mm): 18.599100
Zmin 0 (mm): 65.700000
DZ0 (mm): 54.000000

BEAM SELECTOR CONFIGURATION:
Zmin position (mm): 158.000000
DZ position (mm): 264.000000
Y+ position (mm): 291.700000
Y- position (mm): NaN

CHANNEL ELECTRON MULTIPLIER CONFIGURATION:
CEM configured: OFF
Bias CEM: 0.000000

FLUORESCENCE DETECTOR CONFIGURATION:
Not configured

LUMINESCENCE MONOCHROMATOR CONFIGURATION:
Optical fiber position (mm): 0.000000
Optical fiber Switch inside: ON
Optical fiber Switch outside: ON
Monochromator wavelength (A): 229000.000000
Limit Switches: OFF

I0 MONITOR PARAMETERS:
I0 detector position(mm): NaN
Lower switch: OFF
Upper switch: OFF
Valve status:unread

PRESSURE PARAMETERS:
Monitor chamber pressure (mbar): 1.762e-09
Experimental chamber pressure -ION GAUGE-(mbar): 0.000000E+0

XMCD PARAMETERS:
Xmcd OFF
Xmcd Direction -
Xmcd current (A): 0.000000

Gated scan off

Instrument 1: AMMETER KEITHLEY 6517A B
Measure type: Current
range type: set range value
range value (ampere):  20 nA
Integration time:  set NPLC value
NPLC value: 10.000
Digital filter count: 2
SAMPLE BIAS (V): 0
Vsource: OFF
Output Voltage value: -0.000
Vsource range: 1000 V

Instrument 2: AMMETER KEITHLEY 6517A A
Measure type: Current
range type: set range value
range value (ampere):  20 nA
Integration time:  set NPLC value
NPLC value: 10.000
Digital filter count: 2
Vsource: OFF
Output Voltage value: -0.000
Vsource range: 100 V
Trigger source: bus

Instrument 3: AMMETER KEITHLEY 6517A C 
Measure type: Current
range type: set range value
range value (ampere):  200 nA
Integration time:  set NPLC value
NPLC value: 10.000
Digital filter count: 2
Vsource: OFF
Output Voltage value: -0.000
Vsource range: 100 V
Trigger source: bus


________________________________________________________________________________

RelativeTime (msec)	Photon Energy	Var_1	Var_2	INSTR_1_Sample grounded_(ampere ) 	INSTR_2_Monitor IM_(ampere)  	INSTR_3_Diode B1_(ampere)	I_BPM_sum (Amps)	
________________________________________________________________________________

2.38760000E+4	1.00000933E+2	0.00000000E+0	-5.97000000E+1	2.30000000E-13	1.63380000E-10	8.33750000E-9	9.03824437E-5
3.26170000E+4	1.19996453E+2	0.00000000E+0	-5.97000000E+1	2.90000000E-13	5.29840000E-10	1.59092000E-8	9.04263336E-5
5.66850000E+4	1.39993429E+2	0.00000000E+0	-5.97000000E+1	2.70000000E-13	6.24770000E-10	1.88642000E-8	9.05762691E-5
7.74250000E+4	1.59994105E+2	0.00000000E+0	-5.97000000E+1	2.60000000E-13	4.32490000E-10	1.44994000E-8	9.03949875E-5
9.05250000E+4	1.79995658E+2	0.00000000E+0	-5.97000000E+1	2.20000000E-13	2.61990000E-10	9.64920000E-9	9.02360159E-5
